#Collected Data-14
#Intensity_unit=counts
5.0000 104.0000
5.0200 122.0000
5.0400 111.0000
5.0600 134.0000
5.0800 114.0000
5.1000 118.0000
5.1200 133.0000
5.1400 106.0000
5.1600 115.0000
5.1800 122.0000
5.2000 122.0000
5.2200 114.0000
5.2400 141.0000
5.2600 126.0000
5.2800 110.0000
5.3000 130.0000
5.3200 125.0000
5.3400 132.0000
5.3600 115.0000
5.3800 122.0000
5.4000 104.0000
5.4200 138.0000
5.4400 116.0000
5.4600 133.0000
5.4800 127.0000
5.5000 123.0000
5.5200 107.0000
5.5400 115.0000
5.5600 127.0000
5.5800 105.0000
5.6000 99.0000
5.6200 123.0000
5.6400 101.0000
5.6600 123.0000
5.6800 126.0000
5.7000 113.0000
5.7200 107.0000
5.7400 133.0000
5.7600 106.0000
5.7800 132.0000
5.8000 124.0000
5.8200 107.0000
5.8400 118.0000
5.8600 136.0000
5.8800 107.0000
5.9000 109.0000
5.9200 88.0000
5.9400 105.0000
5.9600 108.0000
5.9800 103.0000
6.0000 110.0000
6.0200 118.0000
6.0400 101.0000
6.0600 113.0000
6.0800 93.0000
6.1000 105.0000
6.1200 108.0000
6.1400 108.0000
6.1600 99.0000
6.1800 98.0000
6.2000 93.0000
6.2200 115.0000
6.2400 110.0000
6.2600 109.0000
6.2800 115.0000
6.3000 107.0000
6.3200 102.0000
6.3400 102.0000
6.3600 93.0000
6.3800 110.0000
6.4000 98.0000
6.4200 107.0000
6.4400 101.0000
6.4600 98.0000
6.4800 74.0000
6.5000 110.0000
6.5200 78.0000
6.5400 86.0000
6.5600 90.0000
6.5800 100.0000
6.6000 89.0000
6.6200 112.0000
6.6400 86.0000
6.6600 107.0000
6.6800 87.0000
6.7000 97.0000
6.7200 83.0000
6.7400 97.0000
6.7600 88.0000
6.7800 106.0000
6.8000 76.0000
6.8200 82.0000
6.8400 98.0000
6.8600 86.0000
6.8800 86.0000
6.9000 89.0000
6.9200 85.0000
6.9400 92.0000
6.9600 98.0000
6.9800 81.0000
7.0000 73.0000
7.0200 98.0000
7.0400 94.0000
7.0600 100.0000
7.0800 96.0000
7.1000 79.0000
7.1200 82.0000
7.1400 89.0000
7.1600 95.0000
7.1800 87.0000
7.2000 84.0000
7.2200 92.0000
7.2400 84.0000
7.2600 90.0000
7.2800 70.0000
7.3000 93.0000
7.3200 74.0000
7.3400 80.0000
7.3600 76.0000
7.3800 88.0000
7.4000 78.0000
7.4200 79.0000
7.4400 89.0000
7.4600 87.0000
7.4800 58.0000
7.5000 97.0000
7.5200 84.0000
7.5400 86.0000
7.5600 92.0000
7.5800 80.0000
7.6000 88.0000
7.6200 81.0000
7.6400 89.0000
7.6600 89.0000
7.6800 79.0000
7.7000 74.0000
7.7200 88.0000
7.7400 92.0000
7.7600 81.0000
7.7800 74.0000
7.8000 75.0000
7.8200 79.0000
7.8400 66.0000
7.8600 73.0000
7.8800 78.0000
7.9000 95.0000
7.9200 64.0000
7.9400 75.0000
7.9600 61.0000
7.9800 83.0000
8.0000 97.0000
8.0200 83.0000
8.0400 79.0000
8.0600 84.0000
8.0800 70.0000
8.1000 68.0000
8.1200 89.0000
8.1400 77.0000
8.1600 75.0000
8.1800 86.0000
8.2000 77.0000
8.2200 70.0000
8.2400 62.0000
8.2600 77.0000
8.2800 75.0000
8.3000 67.0000
8.3200 72.0000
8.3400 81.0000
8.3600 71.0000
8.3800 63.0000
8.4000 87.0000
8.4200 75.0000
8.4400 74.0000
8.4600 71.0000
8.4800 73.0000
8.5000 72.0000
8.5200 52.0000
8.5400 58.0000
8.5600 78.0000
8.5800 80.0000
8.6000 82.0000
8.6200 60.0000
8.6400 60.0000
8.6600 75.0000
8.6800 76.0000
8.7000 73.0000
8.7200 70.0000
8.7400 76.0000
8.7600 71.0000
8.7800 59.0000
8.8000 63.0000
8.8200 59.0000
8.8400 75.0000
8.8600 63.0000
8.8800 67.0000
8.9000 69.0000
8.9200 72.0000
8.9400 60.0000
8.9600 66.0000
8.9800 68.0000
9.0000 77.0000
9.0200 70.0000
9.0400 72.0000
9.0600 68.0000
9.0800 76.0000
9.1000 72.0000
9.1200 72.0000
9.1400 73.0000
9.1600 55.0000
9.1800 73.0000
9.2000 71.0000
9.2200 62.0000
9.2400 68.0000
9.2600 76.0000
9.2800 75.0000
9.3000 59.0000
9.3200 70.0000
9.3400 62.0000
9.3600 56.0000
9.3800 73.0000
9.4000 61.0000
9.4200 60.0000
9.4400 63.0000
9.4600 75.0000
9.4800 54.0000
9.5000 56.0000
9.5200 61.0000
9.5400 69.0000
9.5600 69.0000
9.5800 53.0000
9.6000 74.0000
9.6200 68.0000
9.6400 64.0000
9.6600 71.0000
9.6800 79.0000
9.7000 85.0000
9.7200 60.0000
9.7400 58.0000
9.7600 62.0000
9.7800 65.0000
9.8000 62.0000
9.8200 64.0000
9.8400 68.0000
9.8600 57.0000
9.8800 71.0000
9.9000 51.0000
9.9200 67.0000
9.9400 67.0000
9.9600 64.0000
9.9800 72.0000
10.0000 71.0000
10.0200 70.0000
10.0400 71.0000
10.0600 68.0000
10.0800 70.0000
10.1000 65.0000
10.1200 55.0000
10.1400 58.0000
10.1600 61.0000
10.1800 67.0000
10.2000 47.0000
10.2200 63.0000
10.2400 64.0000
10.2600 64.0000
10.2800 66.0000
10.3000 47.0000
10.3200 59.0000
10.3400 59.0000
10.3600 68.0000
10.3800 67.0000
10.4000 53.0000
10.4200 67.0000
10.4400 59.0000
10.4600 61.0000
10.4800 66.0000
10.5000 70.0000
10.5200 67.0000
10.5400 52.0000
10.5600 78.0000
10.5800 60.0000
10.6000 65.0000
10.6200 62.0000
10.6400 75.0000
10.6600 69.0000
10.6800 57.0000
10.7000 66.0000
10.7200 64.0000
10.7400 59.0000
10.7600 52.0000
10.7800 53.0000
10.8000 58.0000
10.8200 65.0000
10.8400 62.0000
10.8600 63.0000
10.8800 62.0000
10.9000 56.0000
10.9200 55.0000
10.9400 66.0000
10.9600 76.0000
10.9800 62.0000
11.0000 63.0000
11.0200 59.0000
11.0400 61.0000
11.0600 53.0000
11.0800 65.0000
11.1000 62.0000
11.1200 54.0000
11.1400 45.0000
11.1600 38.0000
11.1800 56.0000
11.2000 55.0000
11.2200 63.0000
11.2400 68.0000
11.2600 54.0000
11.2800 58.0000
11.3000 45.0000
11.3200 68.0000
11.3400 58.0000
11.3600 59.0000
11.3800 61.0000
11.4000 49.0000
11.4200 60.0000
11.4400 63.0000
11.4600 48.0000
11.4800 48.0000
11.5000 68.0000
11.5200 47.0000
11.5400 54.0000
11.5600 50.0000
11.5800 58.0000
11.6000 54.0000
11.6200 61.0000
11.6400 68.0000
11.6600 38.0000
11.6800 54.0000
11.7000 48.0000
11.7200 48.0000
11.7400 49.0000
11.7600 75.0000
11.7800 50.0000
11.8000 57.0000
11.8200 59.0000
11.8400 62.0000
11.8600 57.0000
11.8800 53.0000
11.9000 51.0000
11.9200 54.0000
11.9400 55.0000
11.9600 55.0000
11.9800 60.0000
12.0000 55.0000
12.0200 58.0000
12.0400 62.0000
12.0600 56.0000
12.0800 49.0000
12.1000 60.0000
12.1200 52.0000
12.1400 79.0000
12.1600 65.0000
12.1800 63.0000
12.2000 51.0000
12.2200 41.0000
12.2400 49.0000
12.2600 54.0000
12.2800 57.0000
12.3000 51.0000
12.3200 40.0000
12.3400 66.0000
12.3600 46.0000
12.3800 39.0000
12.4000 63.0000
12.4200 59.0000
12.4400 60.0000
12.4600 54.0000
12.4800 53.0000
12.5000 60.0000
12.5200 40.0000
12.5400 60.0000
12.5600 61.0000
12.5800 58.0000
12.6000 46.0000
12.6200 63.0000
12.6400 59.0000
12.6600 33.0000
12.6800 47.0000
12.7000 57.0000
12.7200 47.0000
12.7400 58.0000
12.7600 49.0000
12.7800 56.0000
12.8000 51.0000
12.8200 57.0000
12.8400 63.0000
12.8600 61.0000
12.8800 51.0000
12.9000 52.0000
12.9200 45.0000
12.9400 60.0000
12.9600 56.0000
12.9800 58.0000
13.0000 61.0000
13.0200 63.0000
13.0400 58.0000
13.0600 44.0000
13.0800 62.0000
13.1000 69.0000
13.1200 43.0000
13.1400 48.0000
13.1600 54.0000
13.1800 49.0000
13.2000 43.0000
13.2200 43.0000
13.2400 63.0000
13.2600 60.0000
13.2800 42.0000
13.3000 53.0000
13.3200 55.0000
13.3400 37.0000
13.3600 61.0000
13.3800 45.0000
13.4000 61.0000
13.4200 58.0000
13.4400 45.0000
13.4600 34.0000
13.4800 58.0000
13.5000 41.0000
13.5200 46.0000
13.5400 45.0000
13.5600 47.0000
13.5800 50.0000
13.6000 53.0000
13.6200 53.0000
13.6400 67.0000
13.6600 49.0000
13.6800 52.0000
13.7000 46.0000
13.7200 63.0000
13.7400 46.0000
13.7600 61.0000
13.7800 52.0000
13.8000 48.0000
13.8200 57.0000
13.8400 61.0000
13.8600 52.0000
13.8800 56.0000
13.9000 52.0000
13.9200 45.0000
13.9400 58.0000
13.9600 49.0000
13.9800 55.0000
14.0000 52.0000
14.0200 35.0000
14.0400 43.0000
14.0600 51.0000
14.0800 53.0000
14.1000 41.0000
14.1200 49.0000
14.1400 50.0000
14.1600 63.0000
14.1800 47.0000
14.2000 47.0000
14.2200 47.0000
14.2400 53.0000
14.2600 51.0000
14.2800 47.0000
14.3000 49.0000
14.3200 49.0000
14.3400 52.0000
14.3600 54.0000
14.3800 51.0000
14.4000 50.0000
14.4200 46.0000
14.4400 52.0000
14.4600 61.0000
14.4800 46.0000
14.5000 53.0000
14.5200 48.0000
14.5400 54.0000
14.5600 58.0000
14.5800 48.0000
14.6000 66.0000
14.6200 31.0000
14.6400 41.0000
14.6600 51.0000
14.6800 44.0000
14.7000 51.0000
14.7200 56.0000
14.7400 47.0000
14.7600 42.0000
14.7800 51.0000
14.8000 52.0000
14.8200 55.0000
14.8400 46.0000
14.8600 51.0000
14.8800 46.0000
14.9000 59.0000
14.9200 49.0000
14.9400 42.0000
14.9600 42.0000
14.9800 40.0000
15.0000 57.0000
15.0200 42.0000
15.0400 59.0000
15.0600 44.0000
15.0800 42.0000
15.1000 49.0000
15.1200 58.0000
15.1400 48.0000
15.1600 53.0000
15.1800 43.0000
15.2000 49.0000
15.2200 42.0000
15.2400 49.0000
15.2600 49.0000
15.2800 36.0000
15.3000 53.0000
15.3200 38.0000
15.3400 38.0000
15.3600 51.0000
15.3800 43.0000
15.4000 49.0000
15.4200 50.0000
15.4400 55.0000
15.4600 56.0000
15.4800 41.0000
15.5000 45.0000
15.5200 53.0000
15.5400 39.0000
15.5600 52.0000
15.5800 46.0000
15.6000 40.0000
15.6200 45.0000
15.6400 43.0000
15.6600 45.0000
15.6800 44.0000
15.7000 41.0000
15.7200 46.0000
15.7400 51.0000
15.7600 44.0000
15.7800 67.0000
15.8000 52.0000
15.8200 42.0000
15.8400 41.0000
15.8600 46.0000
15.8800 43.0000
15.9000 46.0000
15.9200 46.0000
15.9400 39.0000
15.9600 58.0000
15.9800 46.0000
16.0000 45.0000
16.0200 54.0000
16.0400 38.0000
16.0600 49.0000
16.0800 47.0000
16.1000 47.0000
16.1200 54.0000
16.1400 51.0000
16.1600 44.0000
16.1800 53.0000
16.2000 46.0000
16.2200 46.0000
16.2400 55.0000
16.2600 39.0000
16.2800 50.0000
16.3000 48.0000
16.3200 41.0000
16.3400 64.0000
16.3600 51.0000
16.3800 57.0000
16.4000 40.0000
16.4200 47.0000
16.4400 48.0000
16.4600 52.0000
16.4800 51.0000
16.5000 48.0000
16.5200 50.0000
16.5400 44.0000
16.5600 51.0000
16.5800 50.0000
16.6000 39.0000
16.6200 50.0000
16.6400 36.0000
16.6600 50.0000
16.6800 47.0000
16.7000 44.0000
16.7200 55.0000
16.7400 49.0000
16.7600 35.0000
16.7800 42.0000
16.8000 52.0000
16.8200 46.0000
16.8400 45.0000
16.8600 46.0000
16.8800 29.0000
16.9000 37.0000
16.9200 39.0000
16.9400 40.0000
16.9600 57.0000
16.9800 49.0000
17.0000 46.0000
17.0200 49.0000
17.0400 47.0000
17.0600 46.0000
17.0800 51.0000
17.1000 54.0000
17.1200 48.0000
17.1400 49.0000
17.1600 35.0000
17.1800 52.0000
17.2000 57.0000
17.2200 45.0000
17.2400 43.0000
17.2600 42.0000
17.2800 55.0000
17.3000 44.0000
17.3200 47.0000
17.3400 37.0000
17.3600 55.0000
17.3800 46.0000
17.4000 50.0000
17.4200 44.0000
17.4400 46.0000
17.4600 44.0000
17.4800 36.0000
17.5000 48.0000
17.5200 45.0000
17.5400 38.0000
17.5600 40.0000
17.5800 44.0000
17.6000 50.0000
17.6200 30.0000
17.6400 38.0000
17.6600 49.0000
17.6800 42.0000
17.7000 52.0000
17.7200 51.0000
17.7400 35.0000
17.7600 52.0000
17.7800 40.0000
17.8000 42.0000
17.8200 32.0000
17.8400 38.0000
17.8600 40.0000
17.8800 44.0000
17.9000 38.0000
17.9200 41.0000
17.9400 50.0000
17.9600 41.0000
17.9800 46.0000
18.0000 57.0000
18.0200 43.0000
18.0400 45.0000
18.0600 42.0000
18.0800 39.0000
18.1000 47.0000
18.1200 44.0000
18.1400 50.0000
18.1600 45.0000
18.1800 45.0000
18.2000 38.0000
18.2200 42.0000
18.2400 46.0000
18.2600 43.0000
18.2800 44.0000
18.3000 40.0000
18.3200 40.0000
18.3400 44.0000
18.3600 51.0000
18.3800 42.0000
18.4000 49.0000
18.4200 37.0000
18.4400 42.0000
18.4600 49.0000
18.4800 43.0000
18.5000 42.0000
18.5200 55.0000
18.5400 48.0000
18.5600 54.0000
18.5800 35.0000
18.6000 46.0000
18.6200 53.0000
18.6400 46.0000
18.6600 49.0000
18.6800 45.0000
18.7000 38.0000
18.7200 31.0000
18.7400 47.0000
18.7600 35.0000
18.7800 42.0000
18.8000 42.0000
18.8200 43.0000
18.8400 38.0000
18.8600 35.0000
18.8800 44.0000
18.9000 40.0000
18.9200 33.0000
18.9400 44.0000
18.9600 45.0000
18.9800 38.0000
19.0000 43.0000
19.0200 40.0000
19.0400 38.0000
19.0600 36.0000
19.0800 44.0000
19.1000 40.0000
19.1200 42.0000
19.1400 36.0000
19.1600 39.0000
19.1800 42.0000
19.2000 39.0000
19.2200 40.0000
19.2400 46.0000
19.2600 42.0000
19.2800 37.0000
19.3000 37.0000
19.3200 35.0000
19.3400 46.0000
19.3600 43.0000
19.3800 39.0000
19.4000 42.0000
19.4200 40.0000
19.4400 42.0000
19.4600 39.0000
19.4800 40.0000
19.5000 39.0000
19.5200 38.0000
19.5400 38.0000
19.5600 35.0000
19.5800 33.0000
19.6000 48.0000
19.6200 39.0000
19.6400 34.0000
19.6600 51.0000
19.6800 37.0000
19.7000 50.0000
19.7200 40.0000
19.7400 38.0000
19.7600 33.0000
19.7800 36.0000
19.8000 35.0000
19.8200 43.0000
19.8400 33.0000
19.8600 47.0000
19.8800 39.0000
19.9000 32.0000
19.9200 48.0000
19.9400 43.0000
19.9600 41.0000
19.9800 40.0000
20.0000 40.0000
20.0200 36.0000
20.0400 48.0000
20.0600 39.0000
20.0800 42.0000
20.1000 40.0000
20.1200 41.0000
20.1400 44.0000
20.1600 36.0000
20.1800 46.0000
20.2000 41.0000
20.2200 38.0000
20.2400 30.0000
20.2600 42.0000
20.2800 41.0000
20.3000 44.0000
20.3200 41.0000
20.3400 47.0000
20.3600 38.0000
20.3800 45.0000
20.4000 38.0000
20.4200 33.0000
20.4400 49.0000
20.4600 36.0000
20.4800 39.0000
20.5000 52.0000
20.5200 40.0000
20.5400 45.0000
20.5600 35.0000
20.5800 38.0000
20.6000 32.0000
20.6200 27.0000
20.6400 35.0000
20.6600 49.0000
20.6800 40.0000
20.7000 29.0000
20.7200 42.0000
20.7400 37.0000
20.7600 42.0000
20.7800 43.0000
20.8000 28.0000
20.8200 40.0000
20.8400 37.0000
20.8600 41.0000
20.8800 32.0000
20.9000 41.0000
20.9200 44.0000
20.9400 35.0000
20.9600 50.0000
20.9800 25.0000
21.0000 51.0000
21.0200 35.0000
21.0400 38.0000
21.0600 28.0000
21.0800 42.0000
21.1000 44.0000
21.1200 38.0000
21.1400 49.0000
21.1600 43.0000
21.1800 39.0000
21.2000 36.0000
21.2200 41.0000
21.2400 37.0000
21.2600 43.0000
21.2800 46.0000
21.3000 34.0000
21.3200 38.0000
21.3400 33.0000
21.3600 49.0000
21.3800 44.0000
21.4000 41.0000
21.4200 39.0000
21.4400 34.0000
21.4600 42.0000
21.4800 41.0000
21.5000 38.0000
21.5200 25.0000
21.5400 39.0000
21.5600 47.0000
21.5800 32.0000
21.6000 29.0000
21.6200 43.0000
21.6400 40.0000
21.6600 45.0000
21.6800 31.0000
21.7000 36.0000
21.7200 42.0000
21.7400 43.0000
21.7600 26.0000
21.7800 44.0000
21.8000 28.0000
21.8200 44.0000
21.8400 31.0000
21.8600 29.0000
21.8800 48.0000
21.9000 49.0000
21.9200 40.0000
21.9400 25.0000
21.9600 32.0000
21.9800 22.0000
22.0000 42.0000
22.0200 40.0000
22.0400 26.0000
22.0600 35.0000
22.0800 32.0000
22.1000 47.0000
22.1200 50.0000
22.1400 38.0000
22.1600 52.0000
22.1800 35.0000
22.2000 38.0000
22.2200 40.0000
22.2400 36.0000
22.2600 36.0000
22.2800 35.0000
22.3000 31.0000
22.3200 30.0000
22.3400 26.0000
22.3600 44.0000
22.3800 31.0000
22.4000 44.0000
22.4200 33.0000
22.4400 39.0000
22.4600 29.0000
22.4800 34.0000
22.5000 31.0000
22.5200 40.0000
22.5400 45.0000
22.5600 55.0000
22.5800 33.0000
22.6000 54.0000
22.6200 38.0000
22.6400 38.0000
22.6600 39.0000
22.6800 24.0000
22.7000 35.0000
22.7200 30.0000
22.7400 40.0000
22.7600 31.0000
22.7800 32.0000
22.8000 27.0000
22.8200 36.0000
22.8400 31.0000
22.8600 38.0000
22.8800 34.0000
22.9000 37.0000
22.9200 49.0000
22.9400 36.0000
22.9600 31.0000
22.9800 32.0000
23.0000 41.0000
23.0200 40.0000
23.0400 43.0000
23.0600 41.0000
23.0800 30.0000
23.1000 38.0000
23.1200 19.0000
23.1400 41.0000
23.1600 28.0000
23.1800 36.0000
23.2000 30.0000
23.2200 33.0000
23.2400 37.0000
23.2600 38.0000
23.2800 41.0000
23.3000 37.0000
23.3200 33.0000
23.3400 44.0000
23.3600 42.0000
23.3800 42.0000
23.4000 38.0000
23.4200 31.0000
23.4400 32.0000
23.4600 33.0000
23.4800 34.0000
23.5000 36.0000
23.5200 42.0000
23.5400 45.0000
23.5600 34.0000
23.5800 34.0000
23.6000 38.0000
23.6200 40.0000
23.6400 39.0000
23.6600 33.0000
23.6800 32.0000
23.7000 44.0000
23.7200 32.0000
23.7400 34.0000
23.7600 32.0000
23.7800 31.0000
23.8000 25.0000
23.8200 50.0000
23.8400 34.0000
23.8600 33.0000
23.8800 42.0000
23.9000 29.0000
23.9200 46.0000
23.9400 37.0000
23.9600 33.0000
23.9800 34.0000
24.0000 31.0000
24.0200 47.0000
24.0400 34.0000
24.0600 42.0000
24.0800 25.0000
24.1000 32.0000
24.1200 43.0000
24.1400 38.0000
24.1600 42.0000
24.1800 38.0000
24.2000 35.0000
24.2200 35.0000
24.2400 49.0000
24.2600 37.0000
24.2800 35.0000
24.3000 39.0000
24.3200 38.0000
24.3400 41.0000
24.3600 27.0000
24.3800 30.0000
24.4000 32.0000
24.4200 30.0000
24.4400 47.0000
24.4600 33.0000
24.4800 33.0000
24.5000 40.0000
24.5200 40.0000
24.5400 30.0000
24.5600 41.0000
24.5800 37.0000
24.6000 30.0000
24.6200 34.0000
24.6400 38.0000
24.6600 31.0000
24.6800 34.0000
24.7000 35.0000
24.7200 33.0000
24.7400 36.0000
24.7600 39.0000
24.7800 39.0000
24.8000 27.0000
24.8200 41.0000
24.8400 28.0000
24.8600 42.0000
24.8800 24.0000
24.9000 38.0000
24.9200 29.0000
24.9400 25.0000
24.9600 35.0000
24.9800 51.0000
25.0000 27.0000
25.0200 40.0000
25.0400 33.0000
25.0600 39.0000
25.0800 36.0000
25.1000 31.0000
25.1200 37.0000
25.1400 31.0000
25.1600 38.0000
25.1800 33.0000
25.2000 38.0000
25.2200 27.0000
25.2400 50.0000
25.2600 38.0000
25.2800 31.0000
25.3000 31.0000
25.3200 40.0000
25.3400 31.0000
25.3600 34.0000
25.3800 36.0000
25.4000 46.0000
25.4200 32.0000
25.4400 32.0000
25.4600 29.0000
25.4800 29.0000
25.5000 29.0000
25.5200 41.0000
25.5400 39.0000
25.5600 53.0000
25.5800 52.0000
25.6000 26.0000
25.6200 33.0000
25.6400 36.0000
25.6600 31.0000
25.6800 34.0000
25.7000 47.0000
25.7200 37.0000
25.7400 41.0000
25.7600 24.0000
25.7800 32.0000
25.8000 23.0000
25.8200 33.0000
25.8400 36.0000
25.8600 28.0000
25.8800 45.0000
25.9000 42.0000
25.9200 34.0000
25.9400 35.0000
25.9600 44.0000
25.9800 36.0000
26.0000 32.0000
26.0200 29.0000
26.0400 23.0000
26.0600 37.0000
26.0800 40.0000
26.1000 29.0000
26.1200 44.0000
26.1400 53.0000
26.1600 31.0000
26.1800 31.0000
26.2000 29.0000
26.2200 50.0000
26.2400 37.0000
26.2600 41.0000
26.2800 41.0000
26.3000 42.0000
26.3200 36.0000
26.3400 29.0000
26.3600 43.0000
26.3800 36.0000
26.4000 43.0000
26.4200 38.0000
26.4400 33.0000
26.4600 34.0000
26.4800 36.0000
26.5000 33.0000
26.5200 40.0000
26.5400 40.0000
26.5600 34.0000
26.5800 34.0000
26.6000 44.0000
26.6200 34.0000
26.6400 40.0000
26.6600 39.0000
26.6800 27.0000
26.7000 32.0000
26.7200 29.0000
26.7400 37.0000
26.7600 30.0000
26.7800 36.0000
26.8000 32.0000
26.8200 36.0000
26.8400 31.0000
26.8600 35.0000
26.8800 33.0000
26.9000 35.0000
26.9200 31.0000
26.9400 32.0000
26.9600 33.0000
26.9800 31.0000
27.0000 33.0000
27.0200 37.0000
27.0400 29.0000
27.0600 35.0000
27.0800 48.0000
27.1000 39.0000
27.1200 42.0000
27.1400 36.0000
27.1600 39.0000
27.1800 34.0000
27.2000 26.0000
27.2200 35.0000
27.2400 34.0000
27.2600 26.0000
27.2800 41.0000
27.3000 43.0000
27.3200 38.0000
27.3400 37.0000
27.3600 36.0000
27.3800 41.0000
27.4000 37.0000
27.4200 33.0000
27.4400 44.0000
27.4600 37.0000
27.4800 34.0000
27.5000 37.0000
27.5200 32.0000
27.5400 37.0000
27.5600 46.0000
27.5800 37.0000
27.6000 27.0000
27.6200 30.0000
27.6400 39.0000
27.6600 40.0000
27.6800 34.0000
27.7000 40.0000
27.7200 38.0000
27.7400 35.0000
27.7600 38.0000
27.7800 45.0000
27.8000 43.0000
27.8200 36.0000
27.8400 39.0000
27.8600 40.0000
27.8800 33.0000
27.9000 27.0000
27.9200 28.0000
27.9400 33.0000
27.9600 42.0000
27.9800 40.0000
28.0000 39.0000
28.0200 36.0000
28.0400 49.0000
28.0600 32.0000
28.0800 41.0000
28.1000 34.0000
28.1200 39.0000
28.1400 49.0000
28.1600 38.0000
28.1800 37.0000
28.2000 36.0000
28.2200 41.0000
28.2400 34.0000
28.2600 35.0000
28.2800 51.0000
28.3000 37.0000
28.3200 29.0000
28.3400 41.0000
28.3600 32.0000
28.3800 26.0000
28.4000 31.0000
28.4200 31.0000
28.4400 33.0000
28.4600 30.0000
28.4800 34.0000
28.5000 37.0000
28.5200 29.0000
28.5400 42.0000
28.5600 31.0000
28.5800 30.0000
28.6000 38.0000
28.6200 43.0000
28.6400 30.0000
28.6600 46.0000
